LabVIEW Measurement	
Writer_Version	2
Reader_Version	2
Separator	Tab
Decimal_Separator	.
Multi_Headings	No
X_Columns	No
Time_Pref	Absolute
Operator	mechlab
Description	Data file
Date	2024/02/16
Time	12:40:15.2319998741149902344
***End_of_Header***	

Channels	6						
Samples	1	1	1	1	1	1	
Date	2024/02/16	2024/02/16	2024/02/16	2024/02/16	2024/02/16	2024/02/16	
Time	12:40:15.2319998741149902344	12:40:15.3369998931884765625	12:40:15.4450001716613769532	12:40:15.5529999732971191406	12:40:15.6620001792907714844	12:40:15.7699999809265136719	
X_Dimension	Time	Time	Time	Time	Time	Time	
X0	0.0000000000000000E+0	0.0000000000000000E+0	0.0000000000000000E+0	0.0000000000000000E+0	0.0000000000000000E+0	0.0000000000000000E+0	
Delta_X	1.000000	1.000000	1.000000	1.000000	1.000000	1.000000	
***End_of_Header***							
X_Value	Untitled	Untitled 1	Untitled 2	Untitled 3	Untitled 4	Untitled 5	Comment
0.000000	426.479419	-37.726706	19.862245	6.741607E-6	-1.211858E-5
0.544000	425.874007	-37.717210	19.862792	6.577634E-6	-1.167002E-5
1.084000	430.741457	-37.728220	19.862789	6.322977E-6	-1.186749E-5
1.629000	422.674661	-37.726797	19.862870	6.237264E-6	-1.112638E-5
2.172000	429.802746	-37.722926	19.861250	6.233537E-6	-1.093622E-5
2.718000	431.606101	-37.720156	19.864787	6.401237E-6	-9.787989E-6
3.264000	431.477290	-37.729247	19.866703	6.098135E-6	-9.241906E-6
3.810000	433.222681	-37.728584	19.863994	5.725468E-6	-8.689729E-6
4.355000	435.169339	-37.722227	19.865905	5.544104E-6	-8.239941E-6
4.898000	438.032165	-37.734657	19.864459	5.376404E-6	-6.672385E-6
5.441000	449.362713	-37.721696	19.861596	5.209947E-6	-5.898357E-6
5.984000	448.778233	-37.731469	19.866456	4.721754E-6	-3.731071E-6
6.527000	451.938935	-37.726259	19.859683	4.494428E-6	-2.108647E-6
7.070000	464.958518	-37.728181	19.857989	4.455920E-6	-2.741198E-7
7.611000	461.844510	-37.722565	19.864167	3.155318E-6	2.502674E-6
8.157000	475.899412	-37.710891	19.863721	1.606277E-6	8.430535E-6
8.702000	503.001270	-37.666789	19.863812	-0.000134	0.000408
9.244000	1862.460936	-37.632232	19.860878	-0.000142	0.000432
9.787000	1942.438156	-37.633913	19.864383	-0.000150	0.000456
10.329000	2016.866837	-37.628512	19.861441	-0.000157	0.000478
10.874000	2106.701331	-37.632605	19.868700	-0.000164	0.000501
11.416000	2179.247761	-37.632995	19.865264	-0.000171	0.000521
11.960000	2246.400226	-37.622677	19.864374	-0.000177	0.000539
12.496000	2306.712821	-37.605271	19.867707	-0.000184	0.000556
13.041000	2360.494691	-37.596979	19.871407	-0.000189	0.000573
13.585000	2410.969336	-37.604176	19.869154	-0.000195	0.000587
14.129000	2471.901836	-37.612414	19.871131	-0.000200	0.000603
14.674000	2518.056478	-37.588922	19.870951	-0.000205	0.000618
15.217000	2573.026633	-37.596924	19.878039	-0.000210	0.000633
15.767000	2621.408099	-37.585003	19.873075	-0.000214	0.000649
16.307000	2666.115228	-37.587804	19.873273	-0.000219	0.000663
16.855000	2723.085178	-37.576472	19.869104	-0.000224	0.000678
17.398000	2770.746913	-37.577435	19.871822	-0.000229	0.000693
17.944000	2819.838452	-37.581737	19.873286	-0.000233	0.000707
18.486000	2860.207867	-37.579779	19.876358	-0.000238	0.000720
19.036000	2913.583988	-37.562016	19.870025	-0.000242	0.000733
19.580000	2961.318181	-37.566605	19.874073	-0.000247	0.000747
20.122000	3001.299554	-37.559945	19.879189	-0.000251	0.000761
20.667000	3040.363147	-37.547103	19.875803	-0.000255	0.000774
21.217000	3087.736670	-37.544423	19.875774	-0.000259	0.000785
21.760000	3129.658262	-37.532292	19.875060	-0.000264	0.000796
22.305000	3170.019629	-37.538743	19.876274	-0.000267	0.000810
22.850000	3207.440882	-37.537905	19.872750	-0.000272	0.000822
23.393000	3245.213145	-37.522287	19.875105	-0.000275	0.000834
23.936000	3282.663381	-37.518686	19.876709	-0.000279	0.000844
24.478000	3325.398095	-37.515714	19.876387	-0.000282	0.000855
25.025000	3366.203862	-37.501541	19.875941	-0.000286	0.000867
25.570000	3402.221075	-37.503660	19.879023	-0.000289	0.000877
26.112000	3432.902285	-37.511998	19.879630	-0.000293	0.000887
26.656000	3469.107885	-37.506765	19.878483	-0.000296	0.000899
27.199000	3507.529037	-37.488477	19.876400	-0.000300	0.000909
27.742000	3543.621927	-37.510958	19.877004	-0.000304	0.000919
28.284000	3580.674462	-37.489894	19.880942	-0.000307	0.000931
28.827000	3619.721959	-37.482983	19.877936	-0.000311	0.000943
29.372000	3651.731537	-37.488235	19.878479	-0.000314	0.000953
29.915000	3693.712710	-37.473367	19.881631	-0.000318	0.000964
30.456000	3726.773709	-37.478287	19.879483	-0.000321	0.000974
31.000000	3760.723506	-37.468272	19.880264	-0.000325	0.000985
31.546000	3797.547402	-37.460659	19.881205	-0.000329	0.000996
32.093000	3838.234025	-37.455372	19.882594	-0.000333	0.001008
32.637000	3874.389714	-37.453462	19.879393	-0.000336	0.001018
33.182000	3901.243626	-37.448657	19.876031	-0.000339	0.001028
33.727000	3945.295442	-37.444252	19.883646	-0.000343	0.001038
34.271000	3982.892208	-37.429941	19.880876	-0.000346	0.001050
34.816000	4017.946564	-37.430508	19.879113	-0.000351	0.001062
35.358000	4053.748024	-37.418142	19.879656	-0.000353	0.001073
35.906000	4094.943454	-37.439521	19.881924	-0.000358	0.001083
36.448000	4131.413123	-37.418267	19.884460	-0.000361	0.001095
36.991000	4163.739903	-37.418744	19.880660	-0.000364	0.001106
37.538000	4195.280936	-37.417224	19.884618	-0.000367	0.001115
38.081000	4234.107851	-37.409946	19.887718	-0.000370	0.001125
38.628000	4271.099208	-37.401341	19.885505	-0.000374	0.001135
39.172000	4309.819855	-37.401241	19.879685	-0.000378	0.001146
39.717000	4342.951707	-37.392147	19.880931	-0.000382	0.001157
40.259000	4380.772287	-37.392492	19.890080	-0.000385	0.001167
40.808000	4423.569811	-37.388160	19.880255	-0.000389	0.001178
41.350000	4457.353770	-37.379327	19.886365	-0.000393	0.001190
41.897000	4492.305082	-37.376896	19.885760	-0.000396	0.001200
42.440000	4531.062766	-37.374809	19.882850	-0.000400	0.001211
42.985000	4558.963275	-37.372258	19.883586	-0.000404	0.001222
43.529000	4599.646687	-37.357973	19.881094	-0.000407	0.001232
44.073000	4634.746133	-37.356298	19.882174	-0.000410	0.001243
44.616000	4672.975693	-37.351661	19.879163	-0.000414	0.001255
45.159000	4699.319197	-37.346486	19.882833	-0.000418	0.001267
45.706000	4740.448621	-37.347352	19.885261	-0.000421	0.001277
46.250000	4776.807199	-37.324269	19.884950	-0.000425	0.001287
46.794000	4821.813840	-37.343643	19.885286	-0.000428	0.001298
47.334000	4848.294209	-37.318865	19.888555	-0.000432	0.001309
47.878000	4885.238879	-37.321664	19.883560	-0.000434	0.001318
48.421000	4923.399206	-37.315958	19.890062	-0.000438	0.001327
48.966000	4947.095643	-37.317323	19.885050	-0.000441	0.001338
49.513000	4984.491154	-37.316579	19.885351	-0.000445	0.001350
50.054000	5022.190982	-37.309617	19.887539	-0.000448	0.001361
50.600000	5055.403349	-37.305308	19.888732	-0.000452	0.001371
51.143000	5088.179369	-37.284833	19.888135	-0.000455	0.001381
51.688000	5128.801604	-37.290288	19.883594	-0.000458	0.001390
52.233000	5160.197734	-37.278476	19.887165	-0.000462	0.001401
52.780000	5192.315208	-37.291110	19.883642	-0.000465	0.001412
53.323000	5230.320966	-37.287020	19.890305	-0.000469	0.001421
53.869000	5261.461085	-37.280734	19.889922	-0.000471	0.001433
54.412000	5296.418848	-37.280386	19.885951	-0.000475	0.001442
54.958000	5328.393021	-37.257992	19.890344	-0.000475	0.001445
55.502000	5328.555645	-37.273462	19.889170	-0.000475	0.001445
56.049000	5326.807032	-37.258729	19.890003	-0.000476	0.001446
56.595000	5333.944786	-37.264545	19.886682	-0.000476	0.001450
57.141000	5349.714504	-37.256652	19.888883	-0.000478	0.001454
57.684000	5365.115499	-37.260211	19.886061	-0.000480	0.001458
58.222000	5370.958700	-37.257190	19.887554	-0.000480	0.001458
58.767000	5358.594430	-37.252099	19.885051	-0.000475	0.001442
59.310000	5309.734711	-37.256926	19.883206	-0.000470	0.001427
59.855000	5260.329156	-37.257151	19.880461	-0.000466	0.001414
60.397000	5215.407844	-37.266329	19.887341	-0.000462	0.001402
60.940000	5177.440729	-37.262974	19.889729	-0.000458	0.001390
61.482000	5143.354054	-37.258855	19.884866	-0.000454	0.001377
62.022000	5107.987318	-37.260153	19.888012	-0.000450	0.001367
62.565000	5067.598554	-37.264980	19.884625	-0.000447	0.001354
63.106000	5023.842986	-37.260204	19.883757	-0.000443	0.001343
63.654000	4982.560595	-37.281793	19.891345	-0.000440	0.001332
64.197000	4942.371490	-37.263015	19.886829	-0.000436	0.001319
64.744000	4910.996295	-37.273871	19.889405	-0.000431	0.001308
65.286000	4866.015413	-37.280521	19.889444	-0.000427	0.001297
65.827000	4824.831244	-37.286331	19.890128	-0.000424	0.001285
66.369000	4792.420729	-37.285181	19.889167	-0.000420	0.001272
66.914000	4749.898534	-37.281059	19.885119	-0.000417	0.001260
67.458000	4705.139854	-37.289722	19.887241	-0.000413	0.001248
68.004000	4665.614132	-37.287912	19.884304	-0.000409	0.001236
68.549000	4631.118487	-37.290124	19.885323	-0.000404	0.001224
69.092000	4595.740487	-37.296372	19.884935	-0.000401	0.001212
69.637000	4551.247483	-37.298474	19.889215	-0.000397	0.001200
70.184000	4517.592333	-37.290440	19.884956	-0.000394	0.001190
70.730000	4475.617590	-37.285036	19.885003	-0.000390	0.001178
71.275000	4433.544628	-37.310473	19.882039	-0.000387	0.001165
71.818000	4401.686396	-37.293808	19.884166	-0.000383	0.001155
72.364000	4363.429468	-37.300545	19.883892	-0.000379	0.001143
72.909000	4323.196899	-37.306925	19.885480	-0.000375	0.001132
73.453000	4288.271351	-37.312979	19.884238	-0.000372	0.001120
73.997000	4241.369583	-37.300278	19.882610	-0.000368	0.001109
74.542000	4206.830469	-37.295306	19.881340	-0.000364	0.001100
75.084000	4168.831166	-37.311446	19.882214	-0.000360	0.001086
75.628000	4134.322646	-37.311945	19.885930	-0.000356	0.001077
76.168000	4089.797447	-37.307317	19.886327	-0.000353	0.001067
76.714000	4055.528839	-37.302741	19.886264	-0.000348	0.001055
77.266000	4024.614153	-37.321191	19.879329	-0.000345	0.001043
77.811000	3980.829619	-37.317597	19.878086	-0.000341	0.001032
78.361000	3942.355327	-37.329206	19.883705	-0.000337	0.001023
78.904000	3906.149723	-37.330282	19.880488	-0.000333	0.001010
79.450000	3873.344734	-37.317510	19.884333	-0.000330	0.001001
79.994000	3839.158245	-37.323477	19.881559	-0.000326	0.000989
80.540000	3793.531714	-37.335714	19.883552	-0.000321	0.000977
81.084000	3753.006106	-37.341301	19.882647	-0.000317	0.000967
81.629000	3718.153021	-37.332449	19.879582	-0.000314	0.000957
82.172000	3673.553760	-37.328575	19.885623	-0.000309	0.000947
82.719000	3644.017357	-37.347195	19.877532	-0.000305	0.000934
83.261000	3598.650061	-37.333206	19.880525	-0.000301	0.000923
83.806000	3559.960015	-37.334391	19.880032	-0.000297	0.000913
84.349000	3530.109635	-37.338316	19.882936	-0.000293	0.000901
84.902000	3497.365835	-37.344673	19.880292	-0.000290	0.000891
85.446000	3446.306698	-37.352850	19.884125	-0.000285	0.000880
85.988000	3409.616446	-37.336310	19.880040	-0.000281	0.000868
86.535000	3374.470319	-37.353548	19.879107	-0.000278	0.000856
87.080000	3344.320455	-37.345343	19.877846	-0.000273	0.000846
87.628000	3305.632021	-37.356076	19.874611	-0.000270	0.000834
88.168000	3259.169834	-37.354907	19.877050	-0.000266	0.000824
88.713000	3230.428844	-37.359654	19.875055	-0.000262	0.000812
89.257000	3184.633255	-37.354302	19.877099	-0.000258	0.000803
89.803000	3151.759037	-37.352286	19.879313	-0.000254	0.000791
90.348000	3112.465193	-37.365995	19.874196	-0.000250	0.000779
90.892000	3083.039894	-37.371122	19.881957	-0.000247	0.000770
91.435000	3044.699253	-37.359319	19.875521	-0.000243	0.000758
91.979000	3002.808254	-37.363348	19.876732	-0.000239	0.000749
92.523000	2972.484498	-37.372439	19.879580	-0.000235	0.000737
93.066000	2930.933240	-37.361644	19.870119	-0.000232	0.000725
93.610000	2889.613843	-37.371395	19.880841	-0.000231	0.000728
94.153000	2911.419961	-37.366938	19.876419	-0.000235	0.000738
94.699000	2955.180330	-37.366777	19.877282	-0.000239	0.000752
95.242000	2993.768931	-37.358469	19.874745	-0.000244	0.000763
95.785000	3035.391036	-37.367202	19.877427	-0.000248	0.000782
96.329000	3108.140358	-37.349062	19.874387	-0.000258	0.000810
96.880000	3220.067596	-37.346386	19.880968	-0.000268	0.000840
97.422000	3306.179469	-37.343881	19.874141	-0.000278	0.000869
97.966000	3409.452212	-37.342567	19.875798	-0.000288	0.000900
98.511000	3503.655041	-37.339511	19.878268	-0.000298	0.000929
99.054000	3608.568522	-37.340696	19.874964	-0.000308	0.000958
99.599000	3714.892488	-37.334671	19.875405	-0.000317	0.000987
100.142000	3802.092827	-37.332078	19.878062	-0.000326	0.001014
100.686000	3904.156369	-37.322743	19.872745	-0.000337	0.001044
101.227000	3991.440441	-37.324994	19.876376	-0.000346	0.001071
101.772000	4086.388780	-37.311443	19.886042	-0.000356	0.001098
102.315000	4183.607420	-37.316093	19.883977	-0.000365	0.001125
102.859000	4270.996159	-37.299698	19.884251	-0.000374	0.001153
103.400000	4370.457729	-37.303746	19.884786	-0.000384	0.001183
103.948000	4470.555309	-37.289197	19.883095	-0.000394	0.001210
104.492000	4561.273826	-37.293686	19.879596	-0.000403	0.001239
105.032000	4652.684705	-37.289796	19.880066	-0.000412	0.001265
105.578000	4739.020426	-37.300845	19.887600	-0.000421	0.001293
106.120000	4835.155464	-37.286118	19.881717	-0.000430	0.001320
106.664000	4927.258713	-37.277858	19.882396	-0.000439	0.001345
107.206000	5017.679369	-37.271762	19.881540	-0.000448	0.001371
107.751000	5104.135862	-37.252395	19.888194	-0.000456	0.001396
108.291000	5192.398935	-37.267173	19.885085	-0.000464	0.001421
108.839000	5273.973488	-37.265579	19.887359	-0.000472	0.001445
109.381000	5341.724986	-37.244386	19.885341	-0.000480	0.001464
109.923000	5408.661754	-37.257515	19.892373	-0.000486	0.001482
110.469000	5468.581531	-37.252334	19.883770	-0.000489	0.001495
111.013000	5497.942448	-37.243024	19.889772	-0.000493	0.001505
111.556000	5543.018339	-37.224037	19.885797	-0.000497	0.001516
112.098000	5571.020298	-37.223405	19.892638	-0.000501	0.001527
112.643000	5607.781423	-37.228845	19.886412	-0.000504	0.001538
113.184000	5652.034534	-37.215889	19.889621	-0.000508	0.001548
113.727000	5684.081169	-37.207951	19.887930	-0.000511	0.001559
114.270000	5722.394471	-37.209813	19.887980	-0.000515	0.001569
114.817000	5751.129047	-37.203987	19.893414	-0.000518	0.001580
115.364000	5793.284147	-37.205388	19.893163	-0.000522	0.001591
115.908000	5827.396594	-37.194474	19.893033	-0.000525	0.001602
116.453000	5857.232507	-37.193853	19.887275	-0.000529	0.001612
116.992000	5896.329951	-37.195579	19.893846	-0.000532	0.001622
117.536000	5928.263879	-37.185019	19.888030	-0.000536	0.001632
118.075000	5957.458957	-37.173713	19.890188	-0.000538	0.001641
118.619000	5990.631084	-37.183950	19.890170	-0.000541	0.001652
119.161000	6025.152510	-37.186549	19.887971	-0.000545	0.001661
119.705000	6057.794902	-37.161630	19.890550	-0.000549	0.001672
120.248000	6090.632121	-37.161894	19.889433	-0.000552	0.001682
120.797000	6121.967079	-37.163121	19.892075	-0.000555	0.001691
121.339000	6152.166888	-37.167771	19.888557	-0.000559	0.001702
121.883000	6193.671499	-37.142704	19.889268	-0.000562	0.001712
122.426000	6223.766650	-37.153731	19.888227	-0.000564	0.001720
122.966000	6252.225897	-37.144575	19.888069	-0.000568	0.001730
123.512000	6287.718243	-37.140373	19.890515	-0.000572	0.001740
124.056000	6318.834225	-37.128406	19.892080	-0.000575	0.001750
124.602000	6347.312795	-37.129884	19.893585	-0.000578	0.001759
125.149000	6381.149917	-37.121737	19.893154	-0.000582	0.001770
125.695000	6414.016124	-37.116407	19.891717	-0.000585	0.001779
126.237000	6446.368696	-37.107870	19.892709	-0.000588	0.001788
126.783000	6480.933603	-37.100930	19.891178	-0.000591	0.001798
127.326000	6509.402515	-37.100962	19.893287	-0.000594	0.001808
127.870000	6541.112642	-37.092322	19.893662	-0.000598	0.001817
128.413000	6571.095089	-37.099671	19.895352	-0.000601	0.001826
128.957000	6606.012619	-37.094042	19.896044	-0.000604	0.001836
129.502000	6639.775679	-37.080059	19.895223	-0.000607	0.001846
130.042000	6673.843055	-37.062666	19.894838	-0.000611	0.001854
130.587000	6701.289530	-37.074710	19.890763	-0.000613	0.001864
131.130000	6734.946322	-37.059304	19.890821	-0.000617	0.001873
131.677000	6764.489203	-37.066396	19.889302	-0.000619	0.001883
132.222000	6792.070931	-37.069680	19.892104	-0.000622	0.001893
132.765000	6836.828041	-37.051759	19.890130	-0.000626	0.001904
133.309000	6861.719223	-37.059971	19.890518	-0.000628	0.001914
133.853000	6893.353680	-37.046851	19.891489	-0.000632	0.001923
134.395000	6922.421571	-37.035574	19.891669	-0.000635	0.001932
134.942000	6954.181619	-37.040234	19.893996	-0.000637	0.001942
135.487000	6980.525152	-37.025623	19.894165	-0.000641	0.001950
136.032000	7016.155982	-37.025652	19.894996	-0.000644	0.001960
136.576000	7047.708324	-37.028747	19.894524	-0.000648	0.001970
137.119000	7083.738471	-37.023369	19.894914	-0.000651	0.001980
137.665000	7111.671216	-37.020673	19.895266	-0.000654	0.001989
138.209000	7143.268643	-37.010120	19.892207	-0.000658	0.001999
138.756000	7171.491213	-37.005953	19.890481	-0.000661	0.002010
139.300000	7208.057540	-37.001635	19.897578	-0.000664	0.002020
139.847000	7242.841441	-37.010826	19.897103	-0.000668	0.002030
140.390000	7275.702833	-36.990454	19.891326	-0.000671	0.002040
140.934000	7311.863406	-36.989098	19.891925	-0.000675	0.002049
141.478000	7341.976286	-36.975119	19.898747	-0.000677	0.002058
142.022000	7374.217775	-36.979698	19.894503	-0.000681	0.002068
142.567000	7405.910205	-36.982767	19.896289	-0.000684	0.002077
143.111000	7435.350047	-36.974130	19.896545	-0.000687	0.002087
143.655000	7469.187188	-36.964830	19.895727	-0.000690	0.002097
144.203000	7503.966264	-36.962453	19.896244	-0.000693	0.002107
144.748000	7534.736085	-36.947833	19.894146	-0.000697	0.002118
145.295000	7565.763530	-36.959774	19.894535	-0.000700	0.002126
145.838000	7603.643741	-36.952644	19.898532	-0.000704	0.002136
146.384000	7647.407415	-36.950680	19.895857	-0.000707	0.002146
146.926000	7673.325879	-36.930385	19.901552	-0.000710	0.002156
147.470000	7704.338835	-36.924305	19.895833	-0.000713	0.002167
148.014000	7734.847817	-36.932598	19.900335	-0.000717	0.002176
148.559000	7763.881908	-36.937245	19.896717	-0.000720	0.002186
149.103000	7813.892939	-36.925796	19.898198	-0.000724	0.002196
149.649000	7842.529327	-36.912989	19.898185	-0.000727	0.002206
150.196000	7872.545608	-36.909849	19.900016	-0.000730	0.002216
150.744000	7904.941681	-36.918216	19.897994	-0.000734	0.002227
151.287000	7939.912372	-36.903592	19.897760	-0.000738	0.002238
151.831000	7978.098519	-36.896833	19.896152	-0.000741	0.002250
152.373000	8018.656408	-36.890196	19.900319	-0.000746	0.002258
152.914000	8044.740723	-36.882895	19.901003	-0.000749	0.002269
153.460000	8073.555841	-36.884776	19.899503	-0.000752	0.002279
154.003000	8114.802873	-36.874419	19.900428	-0.000756	0.002291
154.549000	8150.604403	-36.881913	19.901023	-0.000759	0.002300
155.093000	8180.847719	-36.856125	19.900480	-0.000763	0.002312
155.635000	8217.230512	-36.871927	19.903926	-0.000767	0.002322
156.177000	8251.246396	-36.867299	19.897437	-0.000770	0.002333
156.724000	8296.628280	-36.864713	19.899493	-0.000774	0.002345
157.268000	8334.278258	-36.854347	19.902810	-0.000777	0.002354
157.818000	8353.566164	-36.845459	19.902365	-0.000781	0.002365
158.362000	8392.393158	-36.843991	19.900805	-0.000784	0.002375
158.906000	8435.617455	-36.834433	19.899900	-0.000788	0.002386
159.450000	8462.487527	-36.823245	19.899226	-0.000791	0.002399
159.993000	8496.163675	-36.829010	19.898734	-0.000796	0.002407
160.538000	8537.412329	-36.817458	19.903362	-0.000799	0.002417
161.082000	8570.660181	-36.831360	19.898733	-0.000802	0.002428
161.626000	8606.819173	-36.816315	19.899949	-0.000805	0.002440
162.169000	8646.377179	-36.808680	19.903665	-0.000810	0.002451
162.718000	8680.217566	-36.808680	19.900726	-0.000813	0.002463
163.260000	8713.138562	-36.794220	19.906850	-0.000817	0.002473
163.806000	8749.447301	-36.792829	19.898311	-0.000820	0.002483
164.350000	8786.343744	-36.783829	19.901425	-0.000824	0.002495
164.898000	8830.284565	-36.787191	19.903159	-0.000827	0.002505
165.441000	8860.553658	-36.793998	19.903658	-0.000831	0.002514
165.980000	8894.205664	-36.775607	19.905726	-0.000835	0.002526
166.524000	8932.074636	-36.777948	19.902592	-0.000839	0.002539
167.067000	8976.925194	-36.785909	19.897789	-0.000842	0.002550
167.613000	9002.922577	-36.773362	19.902195	-0.000846	0.002561
168.155000	9043.459562	-36.752475	19.903013	-0.000849	0.002571
168.700000	9080.779479	-36.769804	19.902085	-0.000853	0.002583
169.243000	9117.646947	-36.747059	19.902175	-0.000857	0.002596
169.785000	9157.919872	-36.748572	19.902119	-0.000861	0.002606
170.329000	9199.226509	-36.740547	19.907948	-0.000864	0.002618
170.871000	9233.915455	-36.742557	19.906560	-0.000868	0.002629
171.415000	9263.934984	-36.740679	19.900100	-0.000871	0.002640
171.958000	9302.963270	-36.723039	19.903945	-0.000876	0.002650
172.504000	9338.758388	-36.733089	19.897367	-0.000879	0.002663
173.048000	9385.267407	-36.713732	19.903599	-0.000883	0.002673
173.595000	9417.083860	-36.718546	19.907595	-0.000887	0.002686
174.139000	9461.184106	-36.711407	19.905309	-0.000891	0.002697
174.686000	9496.974398	-36.709172	19.900940	-0.000895	0.002709
175.230000	9535.685493	-36.699086	19.904919	-0.000899	0.002720
175.776000	9569.461495	-36.703063	19.904272	-0.000903	0.002731
176.320000	9605.559327	-36.695717	19.906571	-0.000906	0.002742
176.861000	9644.804993	-36.693534	19.904769	-0.000909	0.002754
177.405000	9682.997625	-36.686607	19.907230	-0.000914	0.002767
177.952000	9727.614736	-36.670183	19.907299	-0.000917	0.002780
178.498000	9761.210407	-36.669304	19.905169	-0.000921	0.002790
179.040000	9803.125698	-36.666731	19.904296	-0.000925	0.002803
179.588000	9851.516993	-36.665311	19.908800	-0.000929	0.002814
180.132000	9879.882916	-36.654707	19.901375	-0.000933	0.002826
180.677000	9925.108669	-36.664322	19.905008	-0.000937	0.002838
181.220000	9963.312580	-36.655570	19.906695	-0.000940	0.002851
181.767000	9999.289662	-36.656632	19.906875	-0.000945	0.002862
182.312000	10038.311529	-36.643761	19.908413	-0.000948	0.002874
182.859000	10077.642546	-36.650510	19.903718	-0.000952	0.002886
183.402000	10110.483068	-36.634048	19.907595	-0.000956	0.002899
183.946000	10148.505039	-36.632557	19.906054	-0.000960	0.002910
184.492000	10188.035717	-36.639571	19.909866	-0.000963	0.002923
185.038000	10225.835490	-36.634522	19.904265	-0.000967	0.002934
185.583000	10281.106951	-36.611780	19.903626	-0.000972	0.002948
186.130000	10316.320834	-36.613364	19.903029	-0.000975	0.002960
186.675000	10360.569243	-36.608923	19.908138	-0.000980	0.002972
187.221000	10399.995268	-36.617142	19.908954	-0.000984	0.002983
187.766000	10435.936939	-36.594355	19.909221	-0.000988	0.002996
188.315000	10481.033900	-36.596477	19.907189	-0.000992	0.003009
188.857000	10524.007080	-36.595990	19.907057	-0.000996	0.003023
189.404000	10559.232241	-36.583541	19.907626	-0.001000	0.003037
189.948000	10604.929790	-36.578456	19.904690	-0.001004	0.003047
190.494000	10641.270783	-36.574018	19.905203	-0.001008	0.003059
191.038000	10682.255438	-36.572569	19.912501	-0.001012	0.003073
191.584000	10724.297961	-36.564090	19.907032	-0.001016	0.003085
192.125000	10764.274668	-36.567665	19.913334	-0.001020	0.003097
192.672000	10803.341643	-36.558667	19.911743	-0.001024	0.003110
193.219000	10846.215006	-36.550281	19.911345	-0.001028	0.003122
193.760000	10881.913558	-36.546703	19.909508	-0.001032	0.003134
194.306000	10927.050789	-36.537010	19.911418	-0.001037	0.003146
194.854000	10973.635543	-36.534930	19.907788	-0.001040	0.003160
195.398000	11010.646369	-36.536437	19.913295	-0.001045	0.003173
195.941000	11055.120225	-36.522219	19.910931	-0.001048	0.003183
196.484000	11095.504310	-36.531832	19.909164	-0.001052	0.003197
197.028000	11128.470451	-36.521823	19.911160	-0.001056	0.003209
197.575000	11168.857758	-36.509770	19.913042	-0.001060	0.003221
198.119000	11217.613000	-36.514310	19.913065	-0.001064	0.003233
198.664000	11257.472183	-36.510056	19.911392	-0.001068	0.003247
199.208000	11300.622507	-36.499919	19.910589	-0.001072	0.003260
199.754000	11343.138436	-36.499307	19.909693	-0.001077	0.003274
200.300000	11392.249527	-36.502051	19.917733	-0.001081	0.003287
200.845000	11436.501197	-36.501281	19.909841	-0.001085	0.003299
201.389000	11479.348820	-36.489050	19.906460	-0.001090	0.003314
201.930000	11520.681297	-36.487272	19.915569	-0.001094	0.003327
202.474000	11561.485647	-36.488706	19.919446	-0.001097	0.003340
203.017000	11599.259701	-36.469284	19.915527	-0.001102	0.003353
203.565000	11640.368372	-36.462969	19.913200	-0.001105	0.003365
204.107000	11681.654161	-36.458596	19.917190	-0.001110	0.003379
204.657000	11719.814654	-36.469297	19.916511	-0.001114	0.003393
205.198000	11771.072089	-36.453214	19.915881	-0.001119	0.003405
205.741000	11809.082843	-36.446780	19.915326	-0.001122	0.003419
206.288000	11858.741405	-36.434063	19.917517	-0.001127	0.003429
206.829000	11903.736981	-36.433329	19.916285	-0.001131	0.003444
207.374000	11937.258647	-36.434926	19.921884	-0.001134	0.003458
207.915000	11984.635636	-36.418441	19.918940	-0.001138	0.003473
208.460000	12026.789308	-36.423536	19.919700	-0.001143	0.003484
209.001000	12062.967720	-36.409766	19.920097	-0.001147	0.003497
209.546000	12109.385067	-36.410075	19.920481	-0.001152	0.003511
210.090000	12156.190461	-36.423665	19.917957	-0.001156	0.003525
210.636000	12201.324523	-36.409705	19.921929	-0.001160	0.003536
211.181000	12239.522069	-36.392479	19.917960	-0.001164	0.003552
211.725000	12280.213735	-36.395619	19.915826	-0.001169	0.003564
212.270000	12330.867391	-36.390637	19.921716	-0.001173	0.003578
212.814000	12376.687384	-36.385214	19.920448	-0.001178	0.003591
213.358000	12420.248340	-36.369769	19.921496	-0.001182	0.003605
213.903000	12459.411983	-36.371193	19.916884	-0.001186	0.003618
214.449000	12500.763819	-36.375891	19.923232	-0.001190	0.003631
214.993000	12545.833490	-36.375682	19.918409	-0.001195	0.003644
215.536000	12596.066910	-36.353059	19.921311	-0.001199	0.003657
216.078000	12639.191526	-36.359342	19.921317	-0.001204	0.003670
216.625000	12683.918241	-36.361654	19.921571	-0.001208	0.003684
217.166000	12729.625539	-36.346973	19.923008	-0.001213	0.003697
217.713000	12771.418567	-36.354344	19.924389	-0.001217	0.003711
218.257000	12816.190372	-36.341170	19.922526	-0.001221	0.003723
218.807000	12862.213266	-36.331947	19.923499	-0.001225	0.003738
219.352000	12907.550237	-36.322933	19.924719	-0.001231	0.003752
219.897000	12950.584698	-36.327432	19.923906	-0.001235	0.003764
220.442000	12998.431897	-36.318280	19.923977	-0.001239	0.003777
220.984000	13044.873436	-36.321774	19.926325	-0.001244	0.003791
221.529000	13080.620367	-36.318531	19.922257	-0.001249	0.003804
222.074000	13128.106898	-36.309118	19.927629	-0.001253	0.003820
222.618000	13175.789870	-36.303122	19.926922	-0.001258	0.003833
223.163000	13227.193901	-36.302503	19.926534	-0.001262	0.003847
223.706000	13260.581967	-36.284827	19.932134	-0.001267	0.003859
224.250000	13304.706515	-36.278895	19.927101	-0.001272	0.003873
224.793000	13351.848485	-36.291599	19.926463	-0.001275	0.003887
225.336000	13394.651103	-36.286682	19.931625	-0.001280	0.003901
225.884000	13439.846406	-36.278016	19.930134	-0.001285	0.003915
226.428000	13488.869039	-36.269386	19.928088	-0.001290	0.003928
226.972000	13532.388180	-36.260172	19.925644	-0.001294	0.003943
227.517000	13579.362706	-36.270175	19.927917	-0.001299	0.003956
228.060000	13627.156801	-36.263515	19.925193	-0.001304	0.003969
228.606000	13668.223689	-36.256218	19.932081	-0.001308	0.003982
229.147000	13718.028866	-36.253912	19.930915	-0.001314	0.003997
229.694000	13765.278737	-36.241179	19.930906	-0.001318	0.004011
230.239000	13810.857274	-36.247062	19.930453	-0.001322	0.004025
230.782000	13853.746861	-36.238651	19.929832	-0.001327	0.004040
231.328000	13899.075829	-36.241604	19.933632	-0.001331	0.004053
231.871000	13943.440318	-36.229418	19.928218	-0.001336	0.004068
232.417000	13996.406237	-36.220759	19.931770	-0.001340	0.004080
232.959000	14043.317990	-36.212486	19.928143	-0.001345	0.004095
233.504000	14089.819157	-36.216872	19.930509	-0.001349	0.004111
234.052000	14135.225424	-36.217951	19.930991	-0.001354	0.004124
234.596000	14185.109523	-36.213417	19.933875	-0.001359	0.004137
235.138000	14222.492410	-36.194314	19.932322	-0.001364	0.004150
235.683000	14265.341762	-36.205920	19.932242	-0.001368	0.004165
236.232000	14312.792931	-36.200638	19.932248	-0.001373	0.004180
236.775000	14352.048429	-36.192861	19.939797	-0.001379	0.004194
237.319000	14413.907239	-36.189409	19.933960	-0.001383	0.004210
237.866000	14460.778760	-36.181661	19.934264	-0.001388	0.004224
238.409000	14499.942486	-36.166439	19.934886	-0.001392	0.004238
238.956000	14546.632065	-36.154504	19.934689	-0.001397	0.004251
239.499000	14605.180416	-36.171533	19.932947	-0.001401	0.004266
240.046000	14631.485472	-36.168954	19.931757	-0.001406	0.004280
240.591000	14681.722224	-36.165466	19.935295	-0.001410	0.004293
241.136000	14733.395233	-36.152224	19.937651	-0.001415	0.004307
241.678000	14776.938586	-36.149004	19.935343	-0.001419	0.004321
242.223000	14827.812965	-36.141745	19.936903	-0.001424	0.004335
242.766000	14872.650886	-36.138470	19.935263	-0.001430	0.004350
243.311000	14925.053306	-36.124384	19.937457	-0.001434	0.004367
243.850000	14972.692898	-36.127193	19.934530	-0.001439	0.004382
244.399000	15009.375400	-36.132200	19.939179	-0.001444	0.004398
244.941000	15062.856632	-36.127054	19.938473	-0.001449	0.004412
245.486000	15102.226484	-36.120092	19.938332	-0.001453	0.004425
246.030000	15158.749300	-36.109529	19.940069	-0.001457	0.004440
246.576000	15197.930769	-36.113445	19.938407	-0.001461	0.004453
247.121000	15252.563272	-36.102924	19.944434	-0.001467	0.004466
247.664000	15300.824401	-36.102618	19.940417	-0.001472	0.004483
248.207000	15337.735560	-36.087686	19.940275	-0.001476	0.004498
248.750000	15393.295520	-36.093469	19.940001	-0.001481	0.004511
249.295000	15441.263608	-36.082675	19.940497	-0.001485	0.004525
249.838000	15486.059697	-36.085122	19.942837	-0.001490	0.004540
250.383000	15538.534612	-36.078418	19.941252	-0.001494	0.004555
250.932000	15578.836767	-36.078942	19.943797	-0.001500	0.004572
251.476000	15631.451771	-36.073912	19.943114	-0.001504	0.004586
252.020000	15671.549440	-36.057302	19.943257	-0.001509	0.004602
252.565000	15725.995195	-36.061234	19.939555	-0.001514	0.004617
253.104000	15767.765819	-36.059772	19.944954	-0.001518	0.004632
253.649000	15813.457171	-36.046230	19.944033	-0.001523	0.004645
254.193000	15863.624755	-36.051786	19.945127	-0.001528	0.004660
254.737000	15913.051672	-36.040044	19.944940	-0.001532	0.004676
255.283000	15958.556254	-36.027124	19.941291	-0.001538	0.004691
255.827000	16003.376523	-36.035114	19.948935	-0.001541	0.004705
256.371000	16054.384621	-36.016282	19.947853	-0.001547	0.004720
256.915000	16097.937702	-36.014736	19.943178	-0.001551	0.004733
257.459000	16154.362368	-36.008817	19.948332	-0.001556	0.004749
258.002000	16198.195622	-36.019966	19.946337	-0.001561	0.004766
258.552000	16248.224757	-36.009139	19.948677	-0.001565	0.004780
259.095000	16291.260990	-36.008669	19.950068	-0.001569	0.004794
259.641000	16345.120691	-36.009651	19.945122	-0.001574	0.004809
260.183000	16385.385852	-35.992941	19.951537	-0.001578	0.004823
260.726000	16441.182576	-35.983003	19.945700	-0.001583	0.004839
261.271000	16483.967635	-35.986259	19.952957	-0.001588	0.004855
261.817000	16530.505971	-35.981692	19.948751	-0.001593	0.004870
262.362000	16581.559186	-35.963301	19.948176	-0.001598	0.004885
262.910000	16623.537565	-35.962937	19.949374	-0.001603	0.004902
263.452000	16680.182859	-35.970975	19.946658	-0.001608	0.004917
263.999000	16726.792053	-35.971687	19.947729	-0.001612	0.004930
264.542000	16773.188708	-35.955266	19.950875	-0.001617	0.004945
265.082000	16822.907119	-35.959990	19.948091	-0.001622	0.004961
265.624000	16871.805965	-35.938182	19.953541	-0.001627	0.004977
266.174000	16920.967269	-35.953311	19.951205	-0.001632	0.004993
266.719000	16971.861104	-35.943586	19.954531	-0.001637	0.005006
267.262000	17010.023434	-35.928934	19.951567	-0.001642	0.005023
267.807000	17067.865102	-35.922042	19.954060	-0.001646	0.005039
268.350000	17112.592046	-35.935545	19.950682	-0.001652	0.005052
268.896000	17163.289454	-35.936546	19.952126	-0.001657	0.005068
269.440000	17210.679605	-35.921443	19.952772	-0.001662	0.005084
269.982000	17257.828233	-35.919717	19.954003	-0.001666	0.005098
270.524000	17307.960487	-35.911653	19.953591	-0.001671	0.005113
271.069000	17361.799327	-35.903017	19.953443	-0.001676	0.005127
271.614000	17408.497122	-35.902376	19.955874	-0.001681	0.005144
272.159000	17452.214517	-35.897333	19.952364	-0.001687	0.005157
272.702000	17493.223628	-35.879057	19.949777	-0.001691	0.005174
273.249000	17547.532649	-35.881653	19.958618	-0.001696	0.005190
273.796000	17597.956360	-35.882893	19.955209	-0.001701	0.005206
274.339000	17648.613549	-35.870932	19.961822	-0.001707	0.005222
274.880000	17692.648159	-35.872916	19.949727	-0.001711	0.005238
275.425000	17737.920985	-35.864476	19.959195	-0.001716	0.005251
275.968000	17783.593132	-35.860218	19.959008	-0.001721	0.005268
276.514000	17833.192458	-35.859864	19.958406	-0.001726	0.005283
277.059000	17894.101545	-35.850963	19.959539	-0.001732	0.005299
277.607000	17937.134651	-35.852986	19.962188	-0.001736	0.005314
278.152000	17983.813160	-35.856850	19.961075	-0.001741	0.005329
278.694000	18032.219373	-35.835982	19.962188	-0.001746	0.005345
279.238000	18079.535513	-35.844349	19.958636	-0.001751	0.005359
279.782000	18124.502432	-35.838230	19.960727	-0.001755	0.005375
280.326000	18179.677764	-35.827458	19.962046	-0.001760	0.005391
280.872000	18231.011261	-35.824080	19.956818	-0.001766	0.005407
281.416000	18276.833184	-35.807653	19.957584	-0.001771	0.005422
281.964000	18323.242819	-35.815121	19.963613	-0.001776	0.005439
282.506000	18371.518633	-35.801966	19.963927	-0.001781	0.005455
283.048000	18420.473937	-35.810609	19.962854	-0.001786	0.005472
283.593000	18466.476209	-35.801164	19.963458	-0.001790	0.005486
284.137000	18515.532960	-35.788885	19.961758	-0.001795	0.005500
284.683000	18564.560732	-35.797142	19.960579	-0.001800	0.005517
285.224000	18627.844867	-35.777688	19.962516	-0.001805	0.005532
285.769000	18661.257309	-35.785343	19.966104	-0.001811	0.005549
286.312000	18709.494503	-35.775418	19.967192	-0.001816	0.005566
286.859000	18762.154810	-35.770488	19.965339	-0.001821	0.005582
287.403000	18805.559917	-35.751881	19.965962	-0.001826	0.005597
287.944000	18851.901961	-35.762881	19.964848	-0.001831	0.005614
288.491000	18908.727767	-35.755658	19.963431	-0.001836	0.005631
289.033000	18959.521913	-35.747285	19.964019	-0.001841	0.005648
289.579000	19003.302200	-35.739038	19.970656	-0.001846	0.005665
290.124000	19053.542457	-35.750689	19.967419	-0.001850	0.005681
290.667000	19108.553628	-35.739160	19.964925	-0.001856	0.005698
291.209000	19150.619102	-35.737367	19.969171	-0.001860	0.005711
291.751000	19197.420065	-35.730037	19.968651	-0.001865	0.005729
292.297000	19244.246794	-35.722115	19.967617	-0.001871	0.005744
292.841000	19291.092848	-35.717587	19.967213	-0.001875	0.005761
293.384000	19340.458809	-35.720016	19.960779	-0.001880	0.005778
293.931000	19380.432697	-35.714650	19.969707	-0.001886	0.005794
294.476000	19435.252286	-35.694775	19.969442	-0.001891	0.005812
295.027000	19487.787057	-35.706419	19.973155	-0.001896	0.005828
295.574000	19529.316372	-35.688946	19.970939	-0.001903	0.005846
296.120000	19578.782180	-35.682241	19.971678	-0.001908	0.005862
296.663000	19627.702147	-35.691558	19.969719	-0.001913	0.005880
297.215000	19687.278178	-35.688737	19.972804	-0.001919	0.005897
297.756000	19737.252809	-35.679568	19.971593	-0.001924	0.005913
298.307000	19776.363675	-35.680190	19.971949	-0.001929	0.005929
298.847000	19824.166203	-35.667750	19.972169	-0.001934	0.005945
299.390000	19877.670325	-35.662684	19.971628	-0.001939	0.005963
299.931000	19914.526968	-35.666491	19.973184	-0.001946	0.005980
300.477000	19963.963824	-35.661750	19.976137	-0.001951	0.005996
301.021000	20007.090451	-35.649165	19.973551	-0.001957	0.006015
301.567000	20060.380435	-35.640032	19.970871	-0.001963	0.006033
302.112000	20113.110086	-35.643423	19.975776	-0.001969	0.006051
302.653000	20153.349699	-35.634423	19.974879	-0.001975	0.006066
303.198000	20198.419807	-35.620765	19.978014	-0.001981	0.006084
303.742000	20254.722425	-35.635910	19.972408	-0.001986	0.006101
304.287000	20301.504145	-35.634519	19.975069	-0.001992	0.006119
304.838000	20349.355018	-35.638632	19.974588	-0.001997	0.006136
305.383000	20406.185783	-35.613181	19.977394	-0.002003	0.006153
305.933000	20447.312615	-35.627367	19.980371	-0.002009	0.006171
306.480000	20492.464863	-35.602951	19.975357	-0.002014	0.006188
307.025000	20537.572028	-35.601575	19.978748	-0.002021	0.006204
307.571000	20575.084047	-35.593898	19.979446	-0.002026	0.006223
308.115000	20635.613384	-35.589680	19.978178	-0.002031	0.006242
308.659000	20677.057434	-35.596210	19.977834	-0.002038	0.006260
309.202000	20727.800192	-35.585931	19.977140	-0.002044	0.006278
309.744000	20768.922214	-35.585767	19.977874	-0.002050	0.006297
310.287000	20814.947194	-35.567298	19.977811	-0.002057	0.006314
310.838000	20867.831488	-35.573404	19.979059	-0.002063	0.006334
311.382000	20916.323248	-35.567839	19.983097	-0.002068	0.006353
311.923000	20959.615787	-35.568271	19.985181	-0.002075	0.006370
312.469000	21006.328322	-35.547445	19.983043	-0.002080	0.006389
313.011000	21053.469166	-35.556623	19.983572	-0.002086	0.006408
313.554000	21101.112384	-35.545178	19.988388	-0.002094	0.006427
314.097000	21140.031724	-35.548730	19.983336	-0.002100	0.006445
314.639000	21179.757760	-35.531476	19.982556	-0.002107	0.006466
315.184000	21230.729203	-35.534931	19.985324	-0.002113	0.006486
315.727000	21283.893699	-35.528204	19.986920	-0.002120	0.006507
316.275000	21330.404988	-35.520195	19.984617	-0.002126	0.006527
316.818000	21369.636716	-35.534838	19.982883	-0.002133	0.006547
317.364000	21419.793430	-35.519045	19.984022	-0.002139	0.006566
317.904000	21458.957535	-35.511732	19.988111	-0.002146	0.006585
318.449000	21503.966551	-35.504029	19.988186	-0.002153	0.006608
318.991000	21549.154300	-35.497459	19.989433	-0.002160	0.006629
319.534000	21600.785944	-35.498177	19.986179	-0.002166	0.006650
320.077000	21637.853622	-35.497450	19.989020	-0.002173	0.006670
320.620000	21682.514857	-35.486668	19.993230	-0.002179	0.006691
321.164000	21722.567791	-35.489599	19.992618	-0.002187	0.006712
321.704000	21764.234118	-35.472892	19.993396	-0.002193	0.006731
322.247000	21812.230020	-35.481966	19.990681	-0.002201	0.006756
322.792000	21852.550252	-35.463105	19.987917	-0.002208	0.006778
323.338000	21897.720316	-35.465649	19.993910	-0.002215	0.006800
323.879000	21941.278603	-35.457589	19.993641	-0.002223	0.006823
324.424000	21996.299687	-35.442585	19.990878	-0.002230	0.006845
324.967000	22032.807051	-35.458349	19.996309	-0.002238	0.006868
325.515000	22073.001706	-35.442666	19.993663	-0.002246	0.006892
326.060000	22115.091530	-35.426867	19.993882	-0.002254	0.006915
326.603000	22157.091190	-35.439951	19.995860	-0.002260	0.006938
327.148000	22199.995768	-35.438038	19.996800	-0.002269	0.006962
327.690000	22232.935009	-35.424233	19.996318	-0.002276	0.006987
328.236000	22263.674760	-35.424303	19.995589	-0.002285	0.007011
328.778000	22312.342143	-35.419685	19.995356	-0.002293	0.007035
329.323000	22369.137669	-35.413667	19.999407	-0.002301	0.007060
329.871000	22400.587513	-35.412723	20.000948	-0.002309	0.007085
330.415000	22441.622701	-35.399236	20.004097	-0.002317	0.007111
330.959000	22485.530436	-35.411838	20.000046	-0.002326	0.007137
331.505000	22525.237239	-35.412028	19.998603	-0.002334	0.007162
332.053000	22554.611582	-35.396467	20.002852	-0.002342	0.007188
332.595000	22601.251785	-35.384275	20.000614	-0.002351	0.007214
333.144000	22642.584869	-35.372759	20.000849	-0.002359	0.007243
333.685000	22682.317447	-35.387299	20.004411	-0.002369	0.007269
334.229000	22715.032902	-35.383000	20.004363	-0.002378	0.007297
334.772000	22750.933276	-35.390313	20.003405	-0.002387	0.007324
335.316000	22792.594846	-35.358809	20.004440	-0.002396	0.007352
335.860000	22829.272939	-35.353933	20.004667	-0.002405	0.007379
336.403000	22856.552463	-35.369275	20.004290	-0.002415	0.007410
336.947000	22898.260736	-35.356429	20.002646	-0.002424	0.007439
337.491000	22935.289852	-35.341261	20.004608	-0.002433	0.007468
338.034000	22975.513553	-35.338743	20.009709	-0.002443	0.007498
338.576000	23009.426993	-35.335954	20.006094	-0.002452	0.007527
339.119000	23039.857631	-35.330660	20.006654	-0.002463	0.007558
339.661000	23080.530578	-35.326950	20.011721	-0.002473	0.007589
340.204000	23109.185202	-35.332615	20.009837	-0.002483	0.007619
340.748000	23142.570512	-35.321488	20.008161	-0.002493	0.007650
341.292000	23173.344126	-35.316236	20.010068	-0.002504	0.007682
341.839000	23210.780635	-35.315540	20.012641	-0.002514	0.007713
342.383000	23247.131889	-35.309093	20.012280	-0.002525	0.007744
342.924000	23275.119909	-35.307831	20.013331	-0.002536	0.007778
343.470000	23305.813022	-35.301680	20.013072	-0.002547	0.007812
344.013000	23338.319191	-35.316046	20.012997	-0.002559	0.007843
344.556000	23365.985181	-35.290213	20.013961	-0.002570	0.007879
345.101000	23398.183810	-35.280117	20.017945	-0.002582	0.007913
345.643000	23433.849144	-35.281495	20.014723	-0.002593	0.007948
346.183000	23461.083613	-35.269683	20.019547	-0.002605	0.007982
346.726000	23487.442148	-35.261310	20.015233	-0.002617	0.008019
347.272000	23512.216276	-35.273306	20.021015	-0.002630	0.008056
347.814000	23543.456860	-35.262537	20.020857	-0.002642	0.008095
348.358000	23573.014815	-35.253160	20.020603	-0.002654	0.008132
348.900000	23595.087074	-35.253543	20.029013	-0.002667	0.008168
349.443000	23627.973261	-35.246352	20.021334	-0.002680	0.008208
349.986000	23641.068804	-35.250364	20.023363	-0.002694	0.008247
350.527000	23673.963044	-35.248490	20.024978	-0.002707	0.008286
351.074000	23693.439706	-35.230044	20.024028	-0.002733	0.008395
351.619000	23953.205901	-35.220577	20.025194	-0.002808	0.008631
352.164000	24070.859768	-35.190682	20.026656	-0.002904	0.008905
352.707000	24123.407830	-35.170613	20.030617	-0.003002	0.009187
353.250000	24188.713320	-35.133754	20.028126	-0.003102	0.009485
353.794000	24255.698228	-35.119607	20.032447	-0.003208	0.009796
354.339000	24319.438643	-35.105595	20.038558	-0.003318	0.010119
354.881000	24364.550939	-35.079169	20.042380	-0.003432	0.010456
355.428000	24416.319707	-35.051355	20.050145	-0.003549	0.010804
355.970000	24454.120202	-35.022862	20.053537	-0.003667	0.011156
356.512000	24497.805893	-35.007830	20.064102	-0.003789	0.011520
357.056000	24533.223332	-34.983619	20.060516	-0.003909	0.011886
357.600000	24566.491188	-34.955448	20.073734	-0.004033	0.012253
358.142000	24599.594808	-34.938693	20.080776	-0.004155	0.012625
358.686000	24625.679670	-34.914595	20.089115	-0.004280	0.013002
359.230000	24655.434126	-34.899727	20.092244	-0.004405	0.013382
359.773000	24681.960180	-34.867842	20.101185	-0.004533	0.013770
360.326000	24720.312983	-34.855177	20.113551	-0.004660	0.014154
360.870000	24736.118481	-34.836596	20.117776	-0.004787	0.014543
361.416000	24764.301410	-34.801130	20.123336	-0.004913	0.014923
361.958000	24773.677473	-34.776733	20.136321	-0.005039	0.015312
362.502000	24800.076327	-34.755663	20.144045	-0.005166	0.015698
363.047000	24823.264491	-34.734599	20.151068	-0.005293	0.016091
363.593000	24842.731534	-34.716108	20.159381	-0.005421	0.016478
364.135000	24866.000208	-34.685927	20.164911	-0.005548	0.016869
364.679000	24890.912874	-34.678704	20.176966	-0.005674	0.017259
365.220000	24899.554697	-34.638917	20.186360	-0.005801	0.017651
365.762000	24922.069808	-34.615685	20.190322	-0.005928	0.018040
366.305000	24941.482111	-34.584068	20.203754	-0.006056	0.018434
366.851000	24951.840385	-34.582745	20.207564	-0.006184	0.018829
367.394000	24973.885329	-34.550748	20.220790	-0.006311	0.019219
367.935000	24991.590844	-34.535763	20.228673	-0.006439	0.019613
368.479000	25012.766292	-34.510829	20.235570	-0.006568	0.020008
369.021000	25025.943988	-34.488148	20.246660	-0.006696	0.020402
369.564000	25035.844972	-34.462923	20.253763	-0.006824	0.020798
370.110000	25058.476026	-34.446197	20.261442	-0.006952	0.021197
370.651000	25074.772636	-34.412796	20.272449	-0.007081	0.021593
371.196000	25081.247163	-34.391709	20.287016	-0.007208	0.021992
371.738000	25101.258457	-34.371737	20.293457	-0.007337	0.022392
372.288000	25117.844902	-34.362027	20.298888	-0.007467	0.022793
372.829000	25130.294801	-34.341089	20.310959	-0.007597	0.023198
373.372000	25145.436917	-34.302616	20.314129	-0.007726	0.023599
373.916000	25165.248552	-34.283378	20.317140	-0.007856	0.024001
374.461000	25182.103899	-34.261869	20.332946	-0.007986	0.024405
375.008000	25197.038303	-34.234416	20.340217	-0.008116	0.024812
375.551000	25209.565492	-34.223692	20.348822	-0.008247	0.025219
376.094000	25229.705605	-34.192452	20.360119	-0.008378	0.025627
376.637000	25233.220626	-34.176215	20.367059	-0.008508	0.026032
377.180000	25247.766980	-34.156133	20.377820	-0.008638	0.026437
377.722000	25266.966750	-34.123196	20.385938	-0.008769	0.026844
378.266000	25272.695765	-34.096519	20.397051	-0.008900	0.027255
378.811000	25289.929508	-34.076692	20.403102	-0.009030	0.027660
379.356000	25304.306795	-34.041558	20.411675	-0.009162	0.028073
379.905000	25313.557273	-34.025183	20.418999	-0.009291	0.028479
380.449000	25334.697310	-34.017660	20.430715	-0.009422	0.028888
380.998000	25353.615303	-33.976131	20.438600	-0.009551	0.029287
381.539000	25355.658619	-33.959781	20.448424	-0.009680	0.029695
382.088000	25371.911766	-33.942111	20.453774	-0.009809	0.030097
382.631000	25385.559645	-33.916249	20.465992	-0.009937	0.030502
383.177000	25402.835256	-33.878465	20.476891	-0.010066	0.030906
383.720000	25412.836079	-33.874227	20.485284	-0.010193	0.031309
384.264000	25414.699057	-33.848284	20.490913	-0.010322	0.031718
384.814000	25435.715114	-33.840137	20.495160	-0.010449	0.032127
385.359000	25456.447783	-33.800846	20.507586	-0.010579	0.032538
385.902000	25452.370809	-33.784712	20.514608	-0.010710	0.032943
386.445000	25471.546435	-33.764753	20.525805	-0.010837	0.033347
386.985000	25476.103242	-33.740452	20.531175	-0.010965	0.033755
387.531000	25499.929067	-33.717839	20.541998	-0.011094	0.034170
388.075000	25509.136072	-33.692975	20.548054	-0.011223	0.034573
388.618000	25513.882882	-33.662089	20.557889	-0.011351	0.034974
389.160000	25529.826880	-33.647656	20.563938	-0.011489	0.035374
389.702000	25538.845494	-33.620025	20.572513	-0.011619	0.035782
390.248000	25554.981104	-33.592907	20.582938	-0.011750	0.036195
390.794000	25554.775003	-33.574413	20.590588	-0.011879	0.036600
391.336000	25569.777045	-33.568607	20.600016	-0.012006	0.037007
391.876000	25583.928915	-33.539002	20.608104	-0.012136	0.037420
392.423000	25594.623727	-33.505769	20.619702	-0.012266	0.037832
392.971000	25600.993599	-33.495158	20.625648	-0.012397	0.038246
393.514000	25614.425719	-33.472741	20.635539	-0.012525	0.038656
394.059000	25626.154270	-33.444177	20.640159	-0.012655	0.039069
394.599000	25641.597502	-33.419384	20.651285	-0.012784	0.039482
395.147000	25648.092968	-33.400223	20.662827	-0.012465	0.033063
395.690000	25653.421054	-33.376354	20.667313	-0.010064	0.014066
396.235000	25663.816377	-33.347577	20.676863	-0.006059	0.011917
396.779000	25676.019929	-33.337800	20.688182	-0.005832	0.011189
397.324000	25683.727861	-33.309555	20.692216	-0.005696	0.010728
397.868000	25694.665815	-33.294503	20.701994	-0.005596	0.010409
398.414000	25699.040673	-33.259814	20.707546	-0.005531	0.010168
398.956000	25702.971123	-33.244205	20.720868	-0.005481	0.009985
399.498000	25714.464588	-33.218485	20.727298	-0.005441	0.009836
400.041000	25729.110787	-33.183773	20.735123	-0.005410	0.009713
400.584000	25741.790955	-33.173867	20.745222	-0.005385	0.009607
401.129000	25736.617448	-33.146475	20.757026	-0.005360	0.009523
401.673000	25751.881957	-33.135004	20.763752	-0.005338	0.009453
402.216000	25763.893901	-33.092905	20.771387	-0.005318	0.009382
402.761000	25781.064865	-33.079032	20.778912	-0.005299	0.009327
403.301000	25783.367420	-33.054880	20.788879	-0.005283	0.009273
403.840000	25796.028270	-33.032605	20.799726	-0.005265	0.009232
404.386000	25802.523737	-33.010536	20.805560	-0.005248	0.009189
404.928000	25810.139891	-32.987350	20.819866	-0.005234	0.009144
405.473000	25827.731113	-32.968279	20.823639	-0.005223	0.009103
406.019000	25831.223593	-32.947479	20.837493	-0.005212	0.009067
406.561000	25841.949006	-32.920677	20.841162	-0.005207	0.009029
407.105000	25855.052656	-32.893887	20.852929	-0.005196	0.009005
407.648000	25865.972900	-32.878236	20.861091	-0.005160	0.008999
408.188000	25869.578095	-32.855398	20.873409	-0.005141	0.008985
408.731000	25877.018740	-32.829545	20.880054	-0.005129	0.008968
409.277000	25892.624610	-32.817179	20.890606	-0.005118	0.008945
409.826000	25896.699978	-32.781594	20.902445	-0.005111	0.008922
410.372000	25909.839053	-32.760881	20.911221	-0.005103	0.008900
410.927000	25909.972698	-32.737663	20.919655	-0.005094	0.008881
411.470000	25919.952596	-32.713163	20.931002	-0.005087	0.008859
412.013000	25920.685230	-32.696111	20.938259	-0.005087	0.008830
412.556000	25938.822306	-32.678338	20.945846	-0.005084	0.008800
413.101000	25943.921748	-32.643411	20.950153	-0.005082	0.008770
413.644000	25958.041426	-32.629213	20.962954	-0.005070	0.008752
414.184000	25961.641790	-32.610564	20.970948	-0.005057	0.008742
414.724000	25976.180114	-32.591722	20.979480	-0.005048	0.008728
415.274000	25978.856233	-32.557622	20.989465	-0.005044	0.008720
415.815000	25989.185545	-32.541678	20.998429	-0.005045	0.008716
416.360000	25991.409206	-32.508106	21.007992	-0.005041	0.008705
416.906000	26004.983031	-32.490926	21.012297	-0.005036	0.008696
417.449000	26008.718652	-32.466365	21.025256	-0.005034	0.008686
417.994000	26020.403736	-32.446953	21.033439	-0.005030	0.008678
418.538000	26015.526497	-32.425795	21.047962	-0.005027	0.008670
419.082000	26028.079469	-32.398700	21.050481	-0.005025	0.008661
419.626000	26033.610440	-32.375533	21.062233	-0.005021	0.008656
420.168000	26040.318456	-32.354076	21.066951	-0.005017	0.008648
420.714000	26050.090646	-32.332532	21.080496	-0.005011	0.008645
421.258000	26066.567630	-32.307581	21.087060	-0.005005	0.008640
421.803000	26062.706416	-32.277815	21.094532	-0.004986	0.008668
422.346000	26071.586565	-32.270583	21.108191	-0.004982	0.008675
422.893000	26078.193139	-32.237117	21.110517	-0.004969	0.008682
423.435000	26079.650352	-32.213635	21.118030	-0.004960	0.008687
423.982000	26096.610392	-32.194851	21.129084	-0.004952	0.008692
424.524000	26099.225328	-32.183918	21.138349	-0.004945	0.008695
425.074000	26108.285818	-32.143232	21.142544	-0.004939	0.008695
425.620000	26102.737134	-32.126580	21.150147	-0.004934	0.008695
426.162000	26123.543897	-32.092593	21.159858	-0.004929	0.008692
426.707000	26124.920602	-32.089199	21.168821	-0.004928	0.008688
427.248000	26132.010231	-32.062164	21.175473	-0.004923	0.008689
427.795000	26135.003559	-32.033140	21.184437	-0.004921	0.008687
428.339000	26143.481164	-32.022654	21.191243	-0.004915	0.008688
428.886000	26155.193624	-31.987643	21.199349	-0.004912	0.008687
429.427000	26155.224217	-31.967258	21.207226	-0.004913	0.008684
429.972000	26162.473255	-31.949946	21.218709	-0.004908	0.008685
430.516000	26168.392283	-31.921717	21.223273	-0.004905	0.008682
431.059000	26167.925331	-31.898370	21.232467	-0.004904	0.008678
431.605000	26181.640857	-31.886177	21.237405	-0.004902	0.008676
432.150000	26188.133109	-31.844642	21.245079	-0.004898	0.008673
432.692000	26196.369188	-31.837019	21.259314	-0.004902	0.008647
433.238000	26189.736850	-31.807805	21.266103	-0.004899	0.008617
433.782000	26203.275257	-31.789736	21.274226	-0.004893	0.008515
434.321000	26209.849630	-31.762598	21.277392	-0.004865	0.008423
434.862000	26211.588626	-31.738710	21.291120	-0.004864	0.008394
435.404000	26208.509958	-31.710374	21.295144	-0.004863	0.008372
435.948000	26225.043305	-31.694167	21.306906	-0.004867	0.008350
436.492000	26220.707086	-31.667435	21.315809	-0.004866	0.008338
437.036000	26237.224330	-31.648013	21.325761	-0.004864	0.008327
437.577000	26238.037472	-31.622215	21.329402	-0.004864	0.008317
438.119000	26242.014621	-31.590025	21.338767	-0.004867	0.008307
438.662000	26248.318482	-31.580238	21.346315	-0.004862	0.008301
439.204000	26253.981493	-31.558714	21.355450	-0.004858	0.008295
439.746000	26254.897685	-31.534156	21.367415	-0.004859	0.008284
440.287000	26261.552569	-31.516180	21.373194	-0.004861	0.008275
440.834000	26255.875068	-31.494852	21.380187	-0.004860	0.008271
441.379000	26278.396680	-31.472993	21.390459	-0.004860	0.008266
441.922000	26274.432412	-31.444670	21.401085	-0.004859	0.008260
442.465000	26282.431796	-31.423867	21.407249	-0.004860	0.008256
443.009000	26283.851976	-31.403456	21.416167	-0.004860	0.008251
443.551000	26289.389393	-31.376312	21.423382	-0.004859	0.008248
444.095000	26286.415388	-31.358414	21.433026	-0.004858	0.008244
444.638000	26303.494586	-31.338661	21.443373	-0.004854	0.008244
445.181000	26293.801291	-31.298027	21.452140	-0.004844	0.008223
445.724000	26308.292930	-31.273688	21.462983	-0.004845	0.008214
446.265000	26316.363161	-31.265498	21.466859	-0.004848	0.008206
446.808000	26320.502940	-31.247835	21.481323	-0.004850	0.008194
447.350000	26322.393293	-31.226436	21.487201	-0.004854	0.008186
447.894000	26323.248301	-31.187928	21.496663	-0.004855	0.008181
448.435000	26320.979554	-31.164667	21.504590	-0.004854	0.008176
448.980000	26328.774446	-31.137871	21.514925	-0.004854	0.008168
449.522000	26335.205514	-31.131115	21.524743	-0.004855	0.008163
450.063000	26335.248988	-31.098645	21.539089	-0.004855	0.008160
450.606000	26339.726905	-31.084337	21.546051	-0.004855	0.008156
451.145000	26348.381632	-31.060352	21.557719	-0.004854	0.008152
451.689000	26345.641103	-31.032161	21.568257	-0.004853	0.008149
452.233000	26352.719464	-31.012308	21.580348	-0.004854	0.008141
452.776000	26356.075085	-30.982807	21.584704	-0.004857	0.008132
453.316000	26362.876493	-30.965881	21.594849	-0.004860	0.008126
453.858000	26360.458000	-30.940566	21.606262	-0.004862	0.008121
454.399000	26372.442586	-30.924548	21.615005	-0.004864	0.008116
454.943000	26365.367446	-30.900850	21.623961	-0.004864	0.008114
455.484000	26359.359856	-30.874186	21.632936	-0.004862	0.008114
456.027000	26368.871203	-30.850517	21.645399	-0.004860	0.008113
456.571000	26381.884697	-30.838872	21.654157	-0.004859	0.008112
457.110000	26380.627144	-30.799893	21.665286	-0.004859	0.008106
457.653000	26388.657122	-30.788390	21.672823	-0.004858	0.008105
458.198000	26383.535132	-30.772988	21.683325	-0.004855	0.008109
458.741000	26391.106210	-30.730393	21.692026	-0.004852	0.008111
459.288000	26388.125763	-30.717396	21.702856	-0.004850	0.008114
459.833000	26387.798895	-30.708520	21.713464	-0.004848	0.008117
460.375000	26399.025086	-30.675973	21.717064	-0.004844	0.008123
460.921000	26401.367901	-30.660138	21.727145	-0.004839	0.008131
461.465000	26401.153747	-30.629043	21.738394	-0.004835	0.008136
462.008000	26410.731111	-30.598354	21.750556	-0.004833	0.008138
462.551000	26409.998480	-30.570566	21.759970	-0.004828	0.008143
463.095000	26411.637644	-30.562302	21.771807	-0.004825	0.008148
463.638000	26418.030068	-30.538437	21.784240	-0.004823	0.008151
464.179000	26409.740849	-30.522580	21.791146	-0.004823	0.008151
464.721000	26414.732415	-30.498791	21.800379	-0.004824	0.008151
465.268000	26420.322968	-30.469071	21.812259	-0.004825	0.008151
465.825000	26426.177591	-30.446069	21.818534	-0.004823	0.008156
466.369000	26423.495027	-30.416796	21.835115	-0.004824	0.008158
466.915000	26423.978083	-30.396911	21.845142	-0.004823	0.008161
467.455000	26431.512126	-30.378941	21.854698	-0.004823	0.008161
468.006000	26423.614181	-30.346783	21.860579	-0.004822	0.008164
468.550000	26434.935374	-30.323526	21.873280	-0.004823	0.008164
469.092000	26439.566259	-30.297619	21.880912	-0.004823	0.008165
469.635000	26433.078833	-30.289942	21.895925	-0.004827	0.008165
470.175000	26434.645540	-30.279083	21.906034	-0.004827	0.008166
470.718000	26437.783787	-30.240475	21.917181	-0.004831	0.008160
471.259000	26439.619396	-30.214586	21.928737	-0.004831	0.008162
471.800000	26437.004458	-30.203373	21.936028	-0.004830	0.008164
472.342000	26447.913445	-30.151774	21.950349	-0.004829	0.008165
472.887000	26448.246753	-30.152335	21.959567	-0.004831	0.008160
473.431000	26445.918429	-30.127480	21.966557	-0.004834	0.008154
473.973000	26450.608890	-30.105962	21.976160	-0.004835	0.008151
474.517000	26455.004688	-30.082844	21.988321	-0.004836	0.008148
475.064000	26448.900487	-30.051246	21.998744	-0.004835	0.008146
475.605000	26448.665401	-30.054856	22.009696	-0.004835	0.008142
476.148000	26445.923261	-30.019349	22.018713	-0.004835	0.008139
476.688000	26443.706038	-30.001283	22.028202	-0.004841	0.008131
477.233000	26450.679738	-29.955706	22.041260	-0.004846	0.008125
477.773000	26457.439285	-29.955091	22.052493	-0.004848	0.008121
478.315000	26453.571627	-29.931026	22.062317	-0.004847	0.008117
478.857000	26460.564649	-29.895660	22.072358	-0.004848	0.008111
479.403000	26451.697374	-29.883175	22.083349	-0.004852	0.008104
479.945000	26460.437444	-29.853487	22.094198	-0.004855	0.008100
480.487000	26457.502082	-29.831837	22.104677	-0.004858	0.008094
481.034000	26461.617707	-29.811855	22.116166	-0.004860	0.008089
481.577000	26455.397574	-29.788885	22.124811	-0.004863	0.008086
482.116000	26462.244069	-29.779964	22.139542	-0.004863	0.008084
482.660000	26459.308707	-29.736793	22.151243	-0.004866	0.008080
483.202000	26458.386072	-29.724797	22.162046	-0.004865	0.008080
483.750000	26464.567563	-29.708831	22.169399	-0.004862	0.008083
484.294000	26461.942966	-29.682743	22.185021	-0.004856	0.008089
484.836000	26455.518338	-29.657522	22.195709	-0.004851	0.008093
485.378000	26460.216848	-29.627976	22.209818	-0.004848	0.008095
485.919000	26461.060585	-29.612344	22.222033	-0.004848	0.008097
486.465000	26459.278113	-29.580805	22.231378	-0.004847	0.008099
487.008000	26460.666090	-29.559003	22.252354	-0.004848	0.008091
487.552000	26460.530835	-29.548553	22.257434	-0.004853	0.008080
488.097000	26461.772285	-29.522549	22.270502	-0.004855	0.008074
488.644000	26451.880935	-29.512122	22.275881	-0.004855	0.008074
489.186000	26457.716234	-29.467414	22.293529	-0.004857	0.008070
489.732000	26463.128060	-29.443227	22.304695	-0.004855	0.008069
490.276000	26460.751429	-29.420791	22.314738	-0.004853	0.008068
490.819000	26460.687025	-29.408302	22.326663	-0.004845	0.008060
491.364000	26456.901484	-29.370599	22.344560	-0.004844	0.008058
491.909000	26454.795365	-29.361756	22.351778	-0.004843	0.008060
492.452000	26456.975552	-29.342029	22.358541	-0.004841	0.008062
492.994000	26456.595548	-29.316414	22.379158	-0.004841	0.008063
493.538000	26457.138180	-29.285660	22.391303	-0.004841	0.008061
494.086000	26452.884077	-29.257360	22.397596	-0.004842	0.008060
494.630000	26455.242996	-29.252639	22.414638	-0.004844	0.008057
495.173000	26453.170690	-29.215789	22.422843	-0.004836	0.008062
495.718000	26451.037200	-29.199598	22.437726	-0.004837	0.008062
496.259000	26446.398263	-29.175323	22.449012	-0.004838	0.008062
496.805000	26447.924715	-29.156301	22.457270	-0.004838	0.008063
497.347000	26445.858852	-29.142215	22.475159	-0.004840	0.008061
497.888000	26443.168237	-29.112005	22.483785	-0.004840	0.008061
498.431000	26439.210409	-29.084314	22.495646	-0.004840	0.008062
498.980000	26435.176902	-29.057927	22.515542	-0.004841	0.008060
499.521000	26433.373498	-29.043423	22.525707	-0.004843	0.008058
500.063000	26426.045558	-29.014662	22.537626	-0.004843	0.008056
500.604000	26433.160952	-28.994973	22.556172	-0.004844	0.008053
501.147000	26423.527230	-28.977017	22.563324	-0.004847	0.008052
501.692000	26423.306637	-28.948945	22.580188	-0.004847	0.008054
502.231000	26420.559664	-28.915618	22.588746	-0.004846	0.008055
502.776000	26411.682730	-28.902196	22.606781	-0.004849	0.008056
503.317000	26420.302035	-28.893572	22.621873	-0.004850	0.008053
503.859000	26402.556217	-28.856877	22.635366	-0.004836	0.008057
504.401000	26403.491733	-28.845216	22.649550	-0.004833	0.008060
504.945000	26404.560893	-28.811277	22.664201	-0.004832	0.008063
505.488000	26401.121545	-28.786600	22.682586	-0.004830	0.008065
506.030000	26390.809936	-28.770866	22.692877	-0.004829	0.008067
506.571000	26388.043641	-28.748362	22.710958	-0.004827	0.008070
507.110000	26379.715779	-28.718127	22.725692	-0.004712	0.008128
507.651000	26381.722068	-28.696899	22.740126	-0.004701	0.008129
508.194000	26373.999635	-28.680008	22.752870	-0.004692	0.008127
508.735000	26367.025933	-28.659189	22.766868	-0.004685	0.008127
509.279000	26356.806108	-28.636486	22.788321	-0.004681	0.008120
509.822000	26350.470040	-28.613193	22.806207	-0.004670	0.008122
510.366000	26347.494423	-28.595256	22.823162	-0.004625	0.008125
510.907000	26344.372280	-28.568946	22.837635	-0.004620	0.008121
511.451000	26334.527625	-28.538759	22.852197	-0.004615	0.008116
511.992000	26318.475720	-28.525926	22.869799	-0.004617	0.008107
512.535000	26309.587516	-28.492912	22.885515	-0.004616	0.008101
513.077000	26300.106764	-28.466405	22.910670	-0.004607	0.008334
513.620000	26300.791090	-28.459498	22.918781	-0.004599	0.008345
514.163000	26293.635442	-28.423079	22.939280	-0.004591	0.008353
514.708000	26286.131995	-28.399954	22.956378	-0.004590	0.008354
515.249000	26274.324531	-28.382101	22.975774	-0.004589	0.008356
515.786000	26255.127943	-28.363394	22.996180	-0.004588	0.008358
516.324000	26246.545672	-28.338447	23.010784	-0.004589	0.008361
516.866000	26246.165669	-28.311129	23.030237	-0.004587	0.008365
517.410000	26229.811054	-28.288941	23.047496	-0.004586	0.008366
517.953000	26213.968474	-28.271187	23.067297	-0.004586	0.008368
518.495000	26216.288745	-28.244768	23.088591	-0.004583	0.008370
519.035000	26192.326022	-28.223012	23.108715	-0.004587	0.008370
519.577000	26173.148759	-28.200437	23.125580	-0.004589	0.008369
520.122000	26174.425632	-28.171368	23.144218	-0.004587	0.008372
520.664000	26147.777128	-28.158036	23.163710	-0.004583	0.008375
521.205000	26134.903728	-28.135271	23.182880	-0.004583	0.008377
521.748000	26117.207833	-28.124200	23.205544	-0.004581	0.008380
522.288000	26099.080410	-28.083734	23.219239	-0.004581	0.008383
522.833000	26084.877003	-28.063568	23.240271	-0.004577	0.008385
523.375000	26068.090861	-28.040388	23.264441	-0.004580	0.008383
523.919000	26042.115418	-28.026754	23.284781	-0.004583	0.008382
524.462000	26025.987844	-27.985637	23.299868	-0.004581	0.008384
525.004000	26013.217497	-27.982755	23.322675	-0.004580	0.008385
525.550000	25983.920254	-27.955636	23.345029	-0.004576	0.008390
526.091000	25961.427636	-27.933774	23.365209	-0.004574	0.008390
526.633000	25933.906425	-27.897307	23.388222	-0.004576	0.008388
527.185000	25911.780930	-27.901159	23.409840	-0.004575	0.008388
527.726000	25890.808327	-27.850001	23.431432	-0.004580	0.008386
528.266000	25855.693506	-27.842079	23.450894	-0.004580	0.008386
528.805000	25817.862317	-27.831094	23.474723	-0.004579	0.008389
529.350000	25795.092755	-27.793987	23.495564	-0.004577	0.008390
529.891000	25768.793681	-27.774253	23.517488	-0.004573	0.008395
530.433000	25726.378311	-27.750378	23.538109	-0.004568	0.008397
530.976000	25680.592841	-27.724100	23.560042	-0.004566	0.008396
531.520000	25642.892087	-27.718332	23.582346	-0.004568	0.008396
532.061000	25606.861094	-27.681920	23.605674	-0.004569	0.008399
532.601000	25560.513682	-27.654712	23.626009	-0.004569	0.008397
533.144000	25509.952433	-27.631565	23.650213	-0.004572	0.008396
533.687000	25460.527978	-27.608878	23.671714	-0.004574	0.008393
534.235000	25408.403255	-27.591047	23.699088	-0.004578	0.008390
534.778000	25341.970489	-27.568456	23.720384	-0.004577	0.008391
535.321000	25227.151862	-27.540208	23.589986	-0.004577	0.008392
535.862000	40.178116	-27.527781	21.096982	-0.004571	0.008395
536.406000	36.360477	-27.508140	18.592429	-0.004574	0.008391
536.946000	43.813810	-27.475663	16.074483	-0.004574	0.008392
537.487000	37.907820	-27.448706	13.567803	-0.004569	0.008399
538.030000	36.585896	-27.438643	11.060661	-0.004560	0.008406
538.574000	33.183673	-27.417035	8.548896	-0.004557	0.008405
539.114000	27.736573	-27.393385	6.028020	-0.004557	0.008408
539.659000	26.511257	-27.360567	3.499406	-0.004556	0.008410
540.205000	27.556237	-27.333010	0.957941	-0.004556	0.008412
540.745000	21.738805	-27.334289	0.043374	-0.004555	0.008409
